Y	Y	Y	TS132_KYS2_Eu_add_01s	norm	Em	??K	TS132_KYS2_Eu_add_01s	abs	(phot/s/nm)	energy(eV)	RadiantFlux(W/eV)	
510.00	0.38898	16161	1.5497	-0.40101								
511.00	0.57616	23938	1.5528	-0.29822								
512.00	0.60333	25067	1.5558	-0.37754								
513.00	0.64357	26738	1.5589	-0.49419								
514.00	0.67573	28075	1.5619	0.88277								
515.00	0.72768	30233	1.5649	-0.68025								
516.00	0.75902	31535	1.5680	-0.52298								
517.00	0.77368	32144	1.5710	-0.31688								
518.00	0.81915	34033	1.5741	-0.13115								
519.00	0.82995	34482	1.5771	-0.47182								
520.00	0.84464	35093	1.5801	-0.046781								
521.00	0.89430	37156	1.5832	-0.17382								
522.00	0.90419	37567	1.5862	-0.046746								
523.00	0.90905	37769	1.5892	0.091367								
524.00	0.92527	38443	1.5923	-0.15469								
525.00	0.95215	39559	1.5953	0.065630								
526.00	0.95165	39538	1.5984	-0.22115								
527.00	0.97124	40352	1.6014	-0.067581								
528.00	0.97238	40400	1.6044	-0.0098468								
529.00	0.98803	41050	1.6075	-0.15689								
530.00	0.98977	41122	1.6105	-0.21444								
531.00	0.99013	41137	1.6136	-0.17304								
532.00	0.98337	40856	1.6166	-0.13009								
533.00	0.99187	41209	1.6196	0.14480								
534.00	1.0000	41547	1.6227	-0.27211								
535.00	0.97807	40636	1.6257	0.087360								
536.00	0.97939	40691	1.6288	-0.17615								
537.00	0.98781	41041	1.6318	-0.10109								
538.00	0.96651	40156	1.6348	-0.035631								
539.00	0.93967	39041	1.6379	0.11203								
540.00	0.95344	39613	1.6409	0.11547								
541.00	0.93335	38778	1.6439	0.34561								
542.00	0.92707	38517	1.6470	-0.019936								
543.00	0.91638	38073	1.6500	0.061502								
544.00	0.90229	37488	1.6531	0.12632								
545.00	0.88996	36975	1.6561	0.070090								
546.00	0.85308	35443	1.6591	0.066698								
547.00	0.84650	35170	1.6622	0.19737								
548.00	0.85028	35327	1.6652	0.014523								
549.00	0.81011	33658	1.6683	0.042507								
550.00	0.80080	33271	1.6713	-0.0066540								
551.00	0.78040	32423	1.6743	0.065076								
552.00	0.76485	31778	1.6774	0.28484								
553.00	0.74284	30863	1.6804	0.15146								
554.00	0.72744	30223	1.6834	0.10904								
555.00	0.71703	29791	1.6865	0.055576								
556.00	0.69289	28788	1.6895	0.30124								
557.00	0.67302	27962	1.6926	0.14559								
558.00	0.65872	27368	1.6956	0.31980								
559.00	0.64719	26889	1.6987	0.24647								
560.00	0.62551	25988	1.7017	0.14532								
561.00	0.61220	25435	1.7047	0.12909								
562.00	0.58380	24255	1.7078	0.26114								
563.00	0.56890	23636	1.7108	0.16235								
564.00	0.56103	23309	1.7138	0.15387								
565.00	0.54043	22453	1.7169	0.20402								
566.00	0.51131	21244	1.7199	0.29242								
567.00	0.50353	20920	1.7230	0.33698								
568.00	0.48342	20085	1.7260	0.19776								
569.00	0.45861	19054	1.7290	0.36664								
570.00	0.45053	18718	1.7321	0.27207								
571.00	0.44866	18640	1.7351	0.28727								
572.00	0.42450	17637	1.7382	0.39757								
573.00	0.41787	17361	1.7412	0.29025								
574.00	0.39726	16505	1.7442	0.41007								
575.00	0.39419	16377	1.7473	0.45825								
576.00	0.38386	15948	1.7503	0.42919								
577.00	0.36547	15184	1.7533	0.48934								
578.00	0.36189	15036	1.7564	0.37708								
579.00	0.34668	14404	1.7594	0.39960								
580.00	0.33613	13965	1.7625	0.42865								
581.00	0.32286	13414	1.7655	0.49708								
582.00	0.30934	12852	1.7685	0.56132								
583.00	0.29465	12242	1.7716	0.48713								
584.00	0.28937	12023	1.7746	0.57767								
585.00	0.28409	11803	1.7776	0.59087								
586.00	0.27150	11280	1.7807	0.56335								
587.00	0.26525	11021	1.7837	0.58321								
588.00	0.25751	10699	1.7868	0.56262								
589.00	0.25271	10500	1.7898	0.58957								
590.00	0.24015	9977.5	1.7929	0.72516								
591.00	0.23776	9878.3	1.7959	0.67124								
592.00	0.22814	9478.6	1.7989	0.77874								
593.00	0.22105	9184.0	1.8020	0.86911								
594.00	0.21124	8776.5	1.8050	0.65274								
595.00	0.21829	9069.4	1.8080	0.80413								
596.00	0.20193	8389.8	1.8111	0.70674								
597.00	0.19208	7980.3	1.8141	0.77797								
598.00	0.18775	7800.4	1.8172	0.89530								
599.00	0.18546	7705.5	1.8202	0.94105								
600.00	0.17755	7376.5	1.8232	0.87575								
601.00	0.17785	7389.1	1.8263	0.92365								
602.00	0.17535	7285.1	1.8293	0.88560								
603.00	0.16856	7003.3	1.8324	0.97401								
604.00	0.16026	6658.5	1.8354	0.98138								
605.00	0.16308	6775.5	1.8384	1.1145								
606.00	0.15333	6370.2	1.8415	1.1928								
607.00	0.14748	6127.2	1.8445	1.1743								
608.00	0.14405	5984.8	1.8476	1.3348								
609.00	0.14264	5926.3	1.8506	1.1102								
610.00	0.14720	6115.8	1.8536	1.2911								
611.00	0.13863	5759.9	1.8567	1.2578								
612.00	0.13564	5635.3	1.8597	1.2312								
613.00	0.13572	5638.9	1.8627	1.1978								
614.00	0.12762	5302.4	1.8658	1.4526								
615.00	0.12772	5306.5	1.8688	1.4771								
616.00	0.12332	5123.5	1.8719	1.4431								
617.00	0.12672	5264.8	1.8749	1.5751								
618.00	0.12400	5151.8	1.8779	1.6866								
619.00	0.11830	4915.1	1.8810	1.8242								
620.00	0.11179	4644.5	1.8840	1.9241								
621.00	0.11283	4687.8	1.8871	2.0780								
622.00	0.10937	4543.9	1.8901	2.0281								
623.00	0.11548	4798.1	1.8931	1.9507								
624.00	0.10793	4484.3	1.8962	2.0033								
625.00	0.10120	4204.6	1.8992	2.1344								
626.00	0.093734	3894.4	1.9022	1.9214								
627.00	0.095838	3981.8	1.9053	1.9526								
628.00	0.098885	4108.4	1.9083	2.1254								
629.00	0.096690	4017.2	1.9114	2.0902								
630.00	0.094953	3945.0	1.9144	1.9671								
631.00	0.090362	3754.3	1.9174	2.1452								
632.00	0.090529	3761.2	1.9205	2.1294								
633.00	0.086048	3575.0	1.9235	2.2091								
634.00	0.086877	3609.5	1.9266	2.2970								
635.00	0.081835	3400.0	1.9296	2.2616								
636.00	0.080278	3335.3	1.9326	2.4004								
637.00	0.073247	3043.2	1.9357	2.4834								
638.00	0.077970	3239.4	1.9387	2.4687								
639.00	0.074892	3111.6	1.9418	2.5227								
640.00	0.075298	3128.4	1.9448	2.4751								
641.00	0.074660	3101.9	1.9478	2.5022								
642.00	0.070409	2925.3	1.9509	2.6571								
643.00	0.067319	2796.9	1.9539	2.7573								
644.00	0.070478	2928.2	1.9569	2.8247								
645.00	0.063257	2628.1	1.9600	2.8659								
646.00	0.065113	2705.2	1.9630	2.9438								
647.00	0.063158	2624.0	1.9661	2.9896								
648.00	0.057465	2387.5	1.9691	3.1056								
649.00	0.065276	2712.0	1.9721	3.1628								
650.00	0.061804	2567.8	1.9752	3.1758								
651.00	0.057220	2377.3	1.9782	3.0609								
652.00	0.057910	2406.0	1.9813	3.0620								
653.00	0.064350	2673.6	1.9843	3.2988								
654.00	0.058490	2430.1	1.9873	3.5134								
655.00	0.057941	2407.3	1.9904	3.6935								
656.00	0.060146	2498.9	1.9934	3.5057								
657.00	0.061417	2551.7	1.9964	3.6087								
658.00	0.056957	2366.4	1.9995	3.5695								
659.00	0.054236	2253.4	2.0025	3.7439								
660.00	0.050120	2082.4	2.0056	3.9205								
661.00	0.047473	1972.4	2.0086	4.0218								
662.00	0.042983	1785.8	2.0116	3.9432								
663.00	0.042080	1748.3	2.0147	3.9903								
664.00	0.044325	1841.6	2.0177	4.0331								
665.00	0.039401	1637.0	2.0208	4.1516								
666.00	0.032803	1362.9	2.0238	4.2931								
667.00	0.037624	1563.2	2.0268	4.2887								
668.00	0.036120	1500.7	2.0299	4.4267								
669.00	0.037476	1557.0	2.0329	4.6159								
670.00	0.032033	1330.9	2.0359	4.4731								
671.00	0.038727	1609.0	2.0390	4.5072								
672.00	0.033987	1412.1	2.0420	4.5925								
673.00	0.034577	1436.6	2.0451	4.7346								
674.00	0.033193	1379.1	2.0481	4.9992								
675.00	0.029998	1246.3	2.0511	5.0303								
676.00	0.026971	1120.6	2.0542	5.0789								
677.00	0.028388	1179.4	2.0572	5.3141								
678.00	0.024488	1017.4	2.0603	5.4632								
679.00	0.026694	1109.1	2.0633	5.5016								
680.00	0.025002	1038.8	2.0663	5.4872								
681.00	0.026741	1111.0	2.0694	5.6951								
682.00	0.026281	1091.9	2.0724	5.7719								
683.00	0.022984	954.93	2.0754	5.8477								
684.00	0.021154	878.91	2.0785	6.0326								
685.00	0.019809	823.02	2.0815	6.4116								
686.00	0.023495	976.16	2.0846	6.6536								
687.00	0.017957	746.06	2.0876	6.4813								
688.00	0.024483	1017.2	2.0906	6.7440								
689.00	0.022889	950.99	2.0937	6.9227								
690.00	0.018258	758.57	2.0967	7.1621								
691.00	0.020680	859.20	2.0998	7.2650								
692.00	0.019331	803.14	2.1028	7.4409								
693.00	0.015516	644.63	2.1058	7.7107								
694.00	0.015870	659.36	2.1089	7.8205								
695.00	0.016302	677.30	2.1119	8.0091								
696.00	0.015860	658.95	2.1149	8.1514								
697.00	0.015592	647.82	2.1180	8.4307								
698.00	0.017303	718.87	2.1210	8.6430								
699.00	0.015050	625.27	2.1241	8.7363								
700.00	0.013414	557.31	2.1271	8.8992								
701.00	0.015543	645.78	2.1302	9.2617								
702.00	0.014331	595.40	2.1332	9.5874								
703.00	0.011953	496.62	2.1362	9.9073								
704.00	0.011847	492.20	2.1393	10.175								
705.00	0.010604	440.57	2.1423	10.467								
706.00	0.010476	435.25	2.1453	10.786								
707.00	0.013372	555.56	2.1484	10.849								
708.00	0.012705	527.86	2.1514	11.241								
709.00	0.010445	433.95	2.1545	11.572								
710.00	0.013928	578.67	2.1575	11.687								
711.00	0.010312	428.43	2.1605	11.829								
712.00	0.0078126	324.59	2.1636	12.315								
713.00	0.011116	461.84	2.1666	12.456								
714.00	0.0090179	374.67	2.1697	12.913								
715.00	0.0070772	294.04	2.1727	13.240								
716.00	0.0076837	319.24	2.1757	13.243								
717.00	0.010142	421.37	2.1788	13.427								
718.00	0.0046721	194.11	2.1818	13.960								
719.00	0.0081961	340.53	2.1848	14.482								
720.00	0.0092014	382.29	2.1879	14.765								
721.00	0.0075599	314.09	2.1909	14.989								
722.00	0.0058895	244.69	2.1940	15.646								
723.00	0.0032053	133.17	2.1970	16.153								
724.00	0.0056996	236.80	2.2000	16.403								
725.00	0.0038864	161.47	2.2031	16.570								
726.00	0.0070197	291.65	2.2061	16.913								
727.00	0.0032417	134.68	2.2092	17.533								
728.00	0.0046742	194.20	2.2122	17.899								
729.00	0.0035390	147.03	2.2152	18.238								
730.00	0.0070695	293.72	2.2183	18.671								
731.00	0.0099269	412.43	2.2213	18.896								
732.00	0.0015948	66.260	2.2243	19.154								
733.00	0.0072432	300.93	2.2274	19.498								
734.00	0.0075744	314.70	2.2304	19.941								
735.00	0.0014462	60.085	2.2335	20.441								
736.00	0.0032875	136.59	2.2365	20.680								
737.00	0.0024263	100.81	2.2395	20.902								
738.00	0.0046096	191.51	2.2426	21.248								
739.00	0.0083113	345.31	2.2456	21.692								
740.00	0.00061501	25.552	2.2487	22.009								
741.00	0.0034010	141.30	2.2517	22.369								
742.00	-0.00089562	-37.210	2.2547	22.710								
743.00	0.00065405	27.174	2.2578	22.858								
744.00	0.0025508	105.98	2.2608	23.609								
745.00	-0.00096320	-40.018	2.2638	24.012								
746.00	0.0057602	239.32	2.2669	23.844								
747.00	0.0021658	89.982	2.2699	23.919								
748.00	0.0013288	55.208	2.2730	24.525								
749.00	0.0022704	94.328	2.2760	25.104								
750.00	0.0032698	135.85	2.2790	25.284								
751.00	0.0020818	86.494	2.2821	25.539								
752.00	0.00081667	33.931	2.2851	25.757								
753.00	-0.00016817	-6.9871	2.2882	25.899								
754.00	0.0095210	395.57	2.2912	25.985								
755.00	0.0026629	110.64	2.2942	26.356								
756.00	0.0038095	158.28	2.2973	26.388								
757.00	0.0028039	116.50	2.3003	26.100								
758.00	0.00096523	40.103	2.3033	26.567								
759.00	-0.0037751	-156.84	2.3064	27.086								
760.00	-0.0022594	-93.873	2.3094	27.308								
761.00	-0.0052764	-219.22	2.3125	27.091								
762.00	0.00021587	8.9686	2.3155	26.939								
763.00	0.0020095	83.488	2.3186	27.100								
764.00	-0.0071374	-296.54	2.3216	27.494								
765.00	0.0021533	89.463	2.3246	27.365								
766.00	0.0032020	133.03	2.3277	27.108								
767.00	-0.0038148	-158.49	2.3307	26.950								
768.00	-0.0039440	-163.86	2.3337	27.042								
769.00	-0.0051580	-214.30	2.3368	27.070								
770.00	-0.0052954	-220.01	2.3398	27.018								
771.00	-0.0031527	-130.98	2.3429	26.959								
772.00	-0.0056126	-233.19	2.3459	26.683								
773.00	0.0015088	62.688	2.3489	26.428								
774.00	-0.0015565	-64.666	2.3520	26.385								
775.00	-0.0022357	-92.887	2.3550	26.042								
776.00	-0.0062560	-259.92	2.3581	25.774								
777.00	0.0023912	99.347	2.3611	25.764								
778.00	-0.0053392	-221.83	2.3641	25.326								
779.00	-0.0018396	-76.429	2.3672	24.824								
780.00	0.0033996	141.24	2.3702	24.516								
781.00	-0.0073689	-306.15	2.3732	24.375								
782.00	0.0027738	115.25	2.3763	24.281								
783.00	-0.0053304	-221.46	2.3793	24.048								
784.00	0.0054817	227.75	2.3824	23.187								
785.00	-0.0065714	-273.02	2.3854	22.456								
786.00	-0.011448	-475.65	2.3884	22.208								
787.00	-0.010001	-415.51	2.3915	22.050								
788.00	-0.00049464	-20.551	2.3945	21.583								
789.00	-0.0076329	-317.12	2.3976	20.733								
790.00	-0.0079488	-330.25	2.4006	20.348								
791.00	-0.014830	-616.16	2.4036	20.041								
792.00	-0.015241	-633.21	2.4067	19.468								
793.00	-0.014388	-597.80	2.4097	18.602								
794.00	0.028598	1188.2	2.4128	17.746								
795.00	-0.0088837	-369.09	2.4158	17.182								
796.00	-0.011473	-476.67	2.4188	16.521								
797.00	-0.0092954	-386.20	2.4219	15.899								
798.00	-0.020695	-859.82	2.4249	15.598								
799.00	0.0095969	398.72	2.4279	14.103								
800.00	-0.0097314	-404.31	2.4310	10.219								
