TS169	TS169	TS169	TS169_KNaYS2_Eu_orange_Ex455_04s	norm	Em	??K	TS169_KNaYS2_Eu_orange_Ex455_04s	abs	(phot/s/nm)	energy(eV)	RadiantFlux(W/eV)	
510.00	0.15475	2042.2	1.5497	0.13367								
511.00	0.22741	3001.0	1.5528	-0.10983								
512.00	0.24590	3245.1	1.5558	0.068067								
513.00	0.24864	3281.2	1.5589	0.078763								
514.00	0.27373	3612.4	1.5619	0.11017								
515.00	0.29600	3906.2	1.5649	-0.44431								
516.00	0.28873	3810.3	1.5680	-0.10290								
517.00	0.31961	4217.8	1.5710	-0.37863								
518.00	0.30342	4004.2	1.5741	-0.067052								
519.00	0.33992	4485.9	1.5771	-0.27590								
520.00	0.34523	4556.0	1.5801	0.57713								
521.00	0.36072	4760.4	1.5832	0.22300								
522.00	0.36960	4877.5	1.5862	0.27550								
523.00	0.39920	5268.1	1.5892	0.50570								
524.00	0.39064	5155.1	1.5923	0.73362								
525.00	0.41068	5419.6	1.5953	0.44137								
526.00	0.43859	5788.0	1.5984	-0.11574								
527.00	0.43989	5805.1	1.6014	0.35106								
528.00	0.46864	6184.5	1.6044	0.43589								
529.00	0.48155	6354.9	1.6075	0.64728								
530.00	0.48691	6425.6	1.6105	0.38627								
531.00	0.50190	6623.4	1.6136	0.54159								
532.00	0.52281	6899.4	1.6166	0.93741								
533.00	0.52772	6964.1	1.6196	0.40646								
534.00	0.56174	7413.2	1.6227	0.47818								
535.00	0.58669	7742.4	1.6257	0.61945								
536.00	0.57739	7619.6	1.6288	0.83572								
537.00	0.59422	7841.7	1.6318	0.58203								
538.00	0.62142	8200.7	1.6348	1.0190								
539.00	0.64641	8530.5	1.6379	0.73699								
540.00	0.63628	8396.8	1.6409	0.59731								
541.00	0.64981	8575.3	1.6439	0.61616								
542.00	0.66756	8809.7	1.6470	1.0518								
543.00	0.68307	9014.3	1.6500	0.77577								
544.00	0.69443	9164.2	1.6531	0.94441								
545.00	0.70530	9307.7	1.6561	1.0091								
546.00	0.70944	9362.3	1.6591	1.4011								
547.00	0.72434	9558.9	1.6622	0.96522								
548.00	0.74839	9876.3	1.6652	1.0608								
549.00	0.75250	9930.5	1.6683	1.0722								
550.00	0.76773	10132	1.6713	0.95866								
551.00	0.78711	10387	1.6743	1.1196								
552.00	0.78741	10391	1.6774	1.2773								
553.00	0.78215	10322	1.6804	1.6431								
554.00	0.83124	10970	1.6834	1.2664								
555.00	0.82087	10833	1.6865	1.3887								
556.00	0.82542	10893	1.6895	1.3945								
557.00	0.86065	11358	1.6926	1.4184								
558.00	0.86027	11353	1.6956	1.4706								
559.00	0.84920	11207	1.6987	1.3909								
560.00	0.85707	11311	1.7017	1.5757								
561.00	0.85804	11323	1.7047	1.4657								
562.00	0.88861	11727	1.7078	1.5323								
563.00	0.88660	11700	1.7108	1.8651								
564.00	0.87256	11515	1.7138	1.9373								
565.00	0.91756	12109	1.7169	1.8904								
566.00	0.88293	11652	1.7199	1.7227								
567.00	0.89147	11765	1.7230	2.0021								
568.00	0.92741	12239	1.7260	2.1223								
569.00	0.93439	12331	1.7290	2.0484								
570.00	0.90770	11979	1.7321	2.3565								
571.00	0.95476	12600	1.7351	2.3545								
572.00	0.94020	12408	1.7382	2.3394								
573.00	0.94193	12430	1.7412	2.5324								
574.00	0.97524	12870	1.7442	2.4965								
575.00	0.97531	12871	1.7473	2.5858								
576.00	0.96548	12741	1.7503	2.5790								
577.00	0.97045	12807	1.7533	2.5059								
578.00	0.99199	13091	1.7564	2.8334								
579.00	1.0000	13197	1.7594	2.8846								
580.00	0.99436	13122	1.7625	3.0646								
581.00	0.96088	12681	1.7655	3.0798								
582.00	0.96680	12759	1.7685	3.2297								
583.00	0.95249	12570	1.7716	3.2261								
584.00	0.94329	12448	1.7746	3.4794								
585.00	0.96823	12778	1.7776	3.2970								
586.00	0.92755	12241	1.7807	3.5714								
587.00	0.96107	12683	1.7837	3.5627								
588.00	0.91427	12065	1.7868	3.7249								
589.00	0.95242	12569	1.7898	3.7459								
590.00	0.89212	11773	1.7929	3.9731								
591.00	0.92777	12243	1.7959	3.9775								
592.00	0.90874	11992	1.7989	4.1521								
593.00	0.90601	11956	1.8020	4.1550								
594.00	0.87984	11611	1.8050	4.1651								
595.00	0.91792	12114	1.8080	4.6812								
596.00	0.93642	12358	1.8111	4.8198								
597.00	0.89489	11810	1.8141	4.5570								
598.00	0.88213	11641	1.8172	4.7804								
599.00	0.91104	12023	1.8202	5.2536								
600.00	0.89132	11763	1.8232	4.8066								
601.00	0.88239	11645	1.8263	4.8625								
602.00	0.87095	11494	1.8293	5.0431								
603.00	0.89544	11817	1.8324	5.1223								
604.00	0.87331	11525	1.8354	5.1996								
605.00	0.88317	11655	1.8384	5.3649								
606.00	0.87423	11537	1.8415	5.5571								
607.00	0.90160	11898	1.8445	5.3808								
608.00	0.87122	11497	1.8476	5.4365								
609.00	0.90091	11889	1.8506	5.7470								
610.00	0.87408	11535	1.8536	5.7622								
611.00	0.86543	11421	1.8567	5.9128								
612.00	0.85231	11248	1.8597	5.9834								
613.00	0.86759	11449	1.8627	6.3527								
614.00	0.86198	11375	1.8658	6.1359								
615.00	0.86305	11389	1.8688	6.5240								
616.00	0.86432	11406	1.8719	6.5024								
617.00	0.83243	10985	1.8749	6.8233								
618.00	0.84399	11138	1.8779	7.1272								
619.00	0.84872	11200	1.8810	7.7355								
620.00	0.84136	11103	1.8840	7.8015								
621.00	0.84728	11181	1.8871	7.6983								
622.00	0.85955	11343	1.8901	8.2472								
623.00	0.84600	11165	1.8931	8.1030								
624.00	0.82863	10935	1.8962	8.1406								
625.00	0.82420	10877	1.8992	7.7930								
626.00	0.81687	10780	1.9022	7.7183								
627.00	0.81071	10699	1.9053	7.7366								
628.00	0.82278	10858	1.9083	7.5419								
629.00	0.84199	11112	1.9114	7.2700								
630.00	0.81876	10805	1.9144	7.4306								
631.00	0.80037	10562	1.9174	7.4056								
632.00	0.80113	10572	1.9205	7.6610								
633.00	0.82824	10930	1.9235	7.5303								
634.00	0.77575	10237	1.9266	7.6532								
635.00	0.75977	10027	1.9296	8.0401								
636.00	0.78872	10409	1.9326	7.9553								
637.00	0.78454	10353	1.9357	7.9073								
638.00	0.77856	10275	1.9387	8.2088								
639.00	0.80143	10576	1.9418	8.2737								
640.00	0.76337	10074	1.9448	8.1340								
641.00	0.75205	9924.6	1.9478	8.2143								
642.00	0.76412	10084	1.9509	8.0480								
643.00	0.75750	9996.6	1.9539	7.9135								
644.00	0.70394	9289.7	1.9569	8.3161								
645.00	0.72693	9593.2	1.9600	8.4851								
646.00	0.71863	9483.6	1.9630	8.2462								
647.00	0.69026	9109.2	1.9661	8.3177								
648.00	0.70711	9331.5	1.9691	8.5430								
649.00	0.67705	8934.8	1.9721	8.6169								
650.00	0.72563	9575.9	1.9752	8.3987								
651.00	0.72423	9557.4	1.9782	8.3190								
652.00	0.72434	9558.9	1.9813	8.3813								
653.00	0.73272	9669.5	1.9843	8.4315								
654.00	0.76480	10093	1.9873	8.4797								
655.00	0.75520	9966.1	1.9904	8.6411								
656.00	0.76828	10139	1.9934	8.7442								
657.00	0.71621	9451.6	1.9964	8.6094								
658.00	0.72382	9552.1	1.9995	8.5361								
659.00	0.72351	9547.9	2.0025	8.5896								
660.00	0.66517	8778.1	2.0056	8.5518								
661.00	0.64294	8484.7	2.0086	8.4146								
662.00	0.59981	7915.5	2.0116	8.6137								
663.00	0.60584	7995.1	2.0147	8.7128								
664.00	0.58778	7756.8	2.0177	8.6663								
665.00	0.54950	7251.6	2.0208	8.6873								
666.00	0.60212	7946.1	2.0238	8.6346								
667.00	0.52201	6888.9	2.0268	8.5550								
668.00	0.54883	7242.8	2.0299	8.6635								
669.00	0.52250	6895.3	2.0329	8.7634								
670.00	0.52416	6917.2	2.0359	8.9663								
671.00	0.49625	6548.8	2.0390	8.6772								
672.00	0.48628	6417.3	2.0420	8.9206								
673.00	0.50704	6691.2	2.0451	8.7395								
674.00	0.49049	6472.9	2.0481	8.7100								
675.00	0.47940	6326.5	2.0511	8.6710								
676.00	0.46283	6107.8	2.0542	8.7290								
677.00	0.46285	6108.1	2.0572	8.7582								
678.00	0.45110	5953.0	2.0603	8.5833								
679.00	0.43613	5755.5	2.0633	8.6840								
680.00	0.43203	5701.3	2.0663	8.7499								
681.00	0.47396	6254.7	2.0694	8.9208								
682.00	0.43628	5757.4	2.0724	8.6988								
683.00	0.41288	5448.7	2.0754	8.6616								
684.00	0.40838	5389.3	2.0785	8.9586								
685.00	0.44281	5843.6	2.0815	9.1049								
686.00	0.40288	5316.7	2.0846	8.8269								
687.00	0.36738	4848.2	2.0876	8.5624								
688.00	0.36894	4868.8	2.0906	8.7840								
689.00	0.37157	4903.5	2.0937	8.7996								
690.00	0.35205	4645.9	2.0967	8.9437								
691.00	0.35447	4677.9	2.0998	8.7460								
692.00	0.34549	4559.4	2.1028	8.8344								
693.00	0.32534	4293.4	2.1058	9.1011								
694.00	0.32831	4332.6	2.1089	8.8296								
695.00	0.31278	4127.7	2.1119	9.2134								
696.00	0.32133	4240.5	2.1149	8.9539								
697.00	0.28718	3789.9	2.1180	9.1319								
698.00	0.29729	3923.3	2.1210	9.1675								
699.00	0.30482	4022.6	2.1241	9.0135								
700.00	0.27749	3661.9	2.1271	9.1053								
701.00	0.28174	3718.1	2.1302	9.2044								
702.00	0.27176	3586.4	2.1332	9.1367								
703.00	0.25956	3425.3	2.1362	9.3210								
704.00	0.27198	3589.3	2.1393	9.4777								
705.00	0.23944	3159.8	2.1423	9.4606								
706.00	0.24568	3242.1	2.1453	9.3610								
707.00	0.21732	2867.9	2.1484	9.1784								
708.00	0.21988	2901.7	2.1514	9.1013								
709.00	0.22645	2988.4	2.1545	9.1378								
710.00	0.21877	2887.1	2.1575	9.1914								
711.00	0.21427	2827.7	2.1605	9.1115								
712.00	0.21796	2876.3	2.1636	8.8403								
713.00	0.20080	2649.9	2.1666	8.7875								
714.00	0.20276	2675.7	2.1697	8.8956								
715.00	0.20002	2639.6	2.1727	8.7515								
716.00	0.20003	2639.7	2.1757	8.4833								
717.00	0.17443	2301.9	2.1788	8.6894								
718.00	0.18480	2438.8	2.1818	8.6649								
719.00	0.16868	2226.0	2.1848	8.4287								
720.00	0.16967	2239.1	2.1879	8.2035								
721.00	0.14309	1888.3	2.1909	8.2139								
722.00	0.16003	2111.9	2.1940	8.4663								
723.00	0.15713	2073.7	2.1970	8.1898								
724.00	0.17091	2255.4	2.2000	8.0769								
725.00	0.14891	1965.2	2.2031	8.1850								
726.00	0.12867	1698.0	2.2061	8.1669								
727.00	0.12092	1595.8	2.2092	7.9346								
728.00	0.13119	1731.3	2.2122	7.8507								
729.00	0.13020	1718.2	2.2152	7.8200								
730.00	0.11515	1519.7	2.2183	7.7718								
731.00	0.12468	1645.4	2.2213	7.8414								
732.00	0.11347	1497.5	2.2243	7.8730								
733.00	0.12355	1630.4	2.2274	7.7207								
734.00	0.11439	1509.6	2.2304	7.4873								
735.00	0.11663	1539.1	2.2335	7.4509								
736.00	0.10671	1408.3	2.2365	7.5329								
737.00	0.10876	1435.3	2.2395	7.3566								
738.00	0.14029	1851.3	2.2426	7.0635								
739.00	0.10504	1386.3	2.2456	7.1014								
740.00	0.11269	1487.1	2.2487	7.1146								
741.00	0.070193	926.31	2.2517	7.0313								
742.00	0.082576	1089.7	2.2547	6.8849								
743.00	0.089367	1179.3	2.2578	6.7737								
744.00	0.081575	1076.5	2.2608	6.7348								
745.00	0.091406	1206.3	2.2638	6.6377								
746.00	0.079173	1044.8	2.2669	6.4672								
747.00	0.12592	1661.7	2.2699	6.3576								
748.00	0.071119	938.53	2.2730	6.3091								
749.00	0.091968	1213.7	2.2760	6.2631								
750.00	0.076963	1015.7	2.2790	6.1808								
751.00	0.063021	831.67	2.2821	6.1017								
752.00	0.068392	902.55	2.2851	6.0056								
753.00	0.087361	1152.9	2.2882	5.8915								
754.00	0.050685	668.87	2.2912	5.7701								
755.00	0.054214	715.45	2.2942	5.6579								
756.00	0.045119	595.42	2.2973	5.6484								
757.00	0.060616	799.94	2.3003	5.6966								
758.00	0.096635	1275.3	2.3033	5.5432								
759.00	0.049417	652.14	2.3064	5.3534								
760.00	0.049793	657.11	2.3094	5.1864								
761.00	0.073756	973.34	2.3125	5.0746								
762.00	0.034660	457.40	2.3155	5.1098								
763.00	0.059749	788.50	2.3186	5.0946								
764.00	0.038417	506.98	2.3216	4.9174								
765.00	0.039922	526.84	2.3246	4.6923								
766.00	0.030242	399.10	2.3277	4.5744								
767.00	0.077666	1024.9	2.3307	4.5417								
768.00	0.053807	710.07	2.3337	4.4106								
769.00	0.028205	372.21	2.3368	4.2912								
770.00	0.032465	428.44	2.3398	4.2136								
771.00	0.038799	512.03	2.3429	4.1782								
772.00	0.077190	1018.7	2.3459	4.1204								
773.00	0.018051	238.21	2.3489	4.0001								
774.00	0.024501	323.33	2.3520	3.8212								
775.00	0.031171	411.36	2.3550	3.7830								
776.00	-0.023842	-314.64	2.3581	3.7280								
777.00	0.029037	383.20	2.3611	3.5533								
778.00	0.057152	754.22	2.3641	3.4047								
779.00	0.054440	718.43	2.3672	3.3650								
780.00	0.044001	580.66	2.3702	3.4150								
781.00	0.0085471	112.79	2.3732	3.2695								
782.00	0.031189	411.59	2.3763	3.1275								
783.00	0.016782	221.46	2.3793	3.0799								
784.00	0.030534	402.94	2.3824	2.9911								
785.00	0.045516	600.66	2.3854	2.9298								
786.00	-0.021626	-285.39	2.3884	2.8959								
787.00	-0.0014993	-19.786	2.3915	2.6922								
788.00	-0.010901	-143.85	2.3945	2.5931								
789.00	-0.033643	-443.98	2.3976	2.6930								
790.00	-0.0016683	-22.017	2.4006	2.5625								
791.00	-0.015563	-205.39	2.4036	2.4411								
792.00	-0.051536	-680.11	2.4067	2.4873								
793.00	0.030803	406.50	2.4097	2.4155								
794.00	-0.0018374	-24.248	2.4128	2.2670								
795.00	-0.013052	-172.24	2.4158	2.1231								
796.00	0.043724	577.02	2.4188	2.0706								
797.00	-0.0019510	-25.747	2.4219	2.0563								
798.00	-0.029616	-390.83	2.4249	1.9769								
799.00	0.022157	292.40	2.4279	1.7497								
800.00	0.010212	134.77	2.4310	1.2913								
