TS172	TS172	TS172	TS172_KNaYS2_Eu_big_04s	norm	Em	??K	TS172_KNaYS2_Eu_big_04s	abs	(phot/s/nm)	energy(eV)	RadiantFlux(W/eV)	
510.00	0.077776	2772.7	1.5497	-0.49649								
511.00	0.084285	3004.8	1.5528	-0.38202								
512.00	0.094421	3366.1	1.5558	-0.057804								
513.00	0.094816	3380.2	1.5589	-0.0029973								
514.00	0.10436	3720.3	1.5619	1.1172								
515.00	0.11127	3966.8	1.5649	0.13975								
516.00	0.11801	4206.9	1.5680	0.092366								
517.00	0.12256	4369.1	1.5710	-0.022450								
518.00	0.12558	4476.8	1.5741	1.0428								
519.00	0.13369	4766.0	1.5771	1.1615								
520.00	0.14382	5127.2	1.5801	1.1078								
521.00	0.15586	5556.3	1.5832	1.6671								
522.00	0.15777	5624.7	1.5862	1.6106								
523.00	0.16957	6045.0	1.5892	0.67133								
524.00	0.16926	6034.1	1.5923	2.0990								
525.00	0.18030	6427.5	1.5953	2.3714								
526.00	0.18677	6658.5	1.5984	1.4171								
527.00	0.19583	6981.5	1.6014	2.5315								
528.00	0.20584	7338.2	1.6044	3.1576								
529.00	0.21169	7546.8	1.6075	2.5470								
530.00	0.22626	8066.0	1.6105	2.9507								
531.00	0.23465	8365.4	1.6136	2.5669								
532.00	0.24283	8656.7	1.6166	3.6029								
533.00	0.25657	9146.8	1.6196	2.9439								
534.00	0.25010	8916.1	1.6227	3.5357								
535.00	0.26191	9336.9	1.6257	3.1711								
536.00	0.27663	9861.8	1.6288	4.0787								
537.00	0.27454	9787.3	1.6318	3.5884								
538.00	0.28793	10265	1.6348	4.5655								
539.00	0.30382	10831	1.6379	3.8972								
540.00	0.30610	10912	1.6409	4.2897								
541.00	0.31605	11267	1.6439	5.2907								
542.00	0.32991	11761	1.6470	4.7458								
543.00	0.32821	11701	1.6500	4.8646								
544.00	0.34876	12433	1.6531	5.3382								
545.00	0.35358	12605	1.6561	5.2945								
546.00	0.35351	12603	1.6591	5.8468								
547.00	0.37078	13218	1.6622	5.7282								
548.00	0.36383	12970	1.6652	5.8831								
549.00	0.36970	13180	1.6683	6.2151								
550.00	0.38038	13560	1.6713	6.6066								
551.00	0.39190	13971	1.6743	6.9973								
552.00	0.39815	14194	1.6774	6.6166								
553.00	0.39932	14236	1.6804	7.3635								
554.00	0.41109	14655	1.6834	7.7957								
555.00	0.42579	15179	1.6865	7.0617								
556.00	0.41949	14955	1.6895	7.7337								
557.00	0.42918	15300	1.6926	8.3419								
558.00	0.43044	15345	1.6956	8.7938								
559.00	0.43618	15550	1.6987	8.6712								
560.00	0.43310	15440	1.7017	9.1106								
561.00	0.44665	15923	1.7047	9.6176								
562.00	0.44789	15967	1.7078	9.6830								
563.00	0.45873	16354	1.7108	10.234								
564.00	0.45188	16109	1.7138	10.326								
565.00	0.46280	16499	1.7169	10.523								
566.00	0.46753	16667	1.7199	11.086								
567.00	0.45356	16169	1.7230	11.796								
568.00	0.46224	16479	1.7260	11.941								
569.00	0.48216	17189	1.7290	11.746								
570.00	0.47085	16786	1.7321	11.944								
571.00	0.48536	17303	1.7351	12.545								
572.00	0.48032	17124	1.7382	12.872								
573.00	0.48943	17448	1.7412	12.555								
574.00	0.49940	17803	1.7442	14.164								
575.00	0.50447	17984	1.7473	14.283								
576.00	0.48990	17465	1.7503	14.730								
577.00	0.51737	18444	1.7533	15.069								
578.00	0.52397	18679	1.7564	16.009								
579.00	0.51792	18464	1.7594	15.591								
580.00	0.52364	18668	1.7625	16.271								
581.00	0.51485	18354	1.7655	16.308								
582.00	0.51579	18388	1.7685	16.888								
583.00	0.51011	18185	1.7716	17.231								
584.00	0.51774	18458	1.7746	17.709								
585.00	0.50735	18087	1.7776	18.426								
586.00	0.51483	18354	1.7807	18.323								
587.00	0.51848	18484	1.7837	18.871								
588.00	0.51644	18411	1.7868	19.014								
589.00	0.52834	18835	1.7898	19.991								
590.00	0.52336	18658	1.7929	20.031								
591.00	0.53016	18900	1.7959	20.574								
592.00	0.51566	18383	1.7989	20.629								
593.00	0.53314	19006	1.8020	21.484								
594.00	0.53122	18938	1.8050	21.817								
595.00	0.53895	19214	1.8080	22.334								
596.00	0.53429	19048	1.8111	22.433								
597.00	0.54860	19557	1.8141	22.753								
598.00	0.55119	19650	1.8172	22.803								
599.00	0.55951	19946	1.8202	23.741								
600.00	0.56601	20178	1.8232	23.858								
601.00	0.56396	20105	1.8263	23.828								
602.00	0.57670	20559	1.8293	24.605								
603.00	0.58177	20740	1.8324	24.506								
604.00	0.59230	21116	1.8354	24.980								
605.00	0.60017	21396	1.8384	25.155								
606.00	0.62229	22185	1.8415	25.180								
607.00	0.62202	22175	1.8445	26.175								
608.00	0.63139	22509	1.8476	26.154								
609.00	0.64775	23092	1.8506	26.356								
610.00	0.63111	22499	1.8536	26.205								
611.00	0.64191	22884	1.8567	26.753								
612.00	0.66597	23742	1.8597	26.908								
613.00	0.67048	23902	1.8627	27.059								
614.00	0.67841	24185	1.8658	27.365								
615.00	0.67938	24220	1.8688	27.298								
616.00	0.69988	24951	1.8719	27.644								
617.00	0.70369	25087	1.8749	28.376								
618.00	0.71923	25641	1.8779	28.090								
619.00	0.73329	26141	1.8810	28.510								
620.00	0.75884	27052	1.8840	29.006								
621.00	0.77866	27759	1.8871	28.940								
622.00	0.77137	27499	1.8901	28.980								
623.00	0.79505	28343	1.8931	28.673								
624.00	0.80027	28530	1.8962	28.653								
625.00	0.81641	29105	1.8992	28.156								
626.00	0.82628	29457	1.9022	28.320								
627.00	0.82112	29273	1.9053	27.957								
628.00	0.82757	29503	1.9083	27.829								
629.00	0.85652	30535	1.9114	27.706								
630.00	0.85227	30383	1.9144	27.401								
631.00	0.87874	31327	1.9174	27.423								
632.00	0.85627	30526	1.9205	27.464								
633.00	0.90191	32153	1.9235	27.174								
634.00	0.90504	32265	1.9266	26.734								
635.00	0.90633	32311	1.9296	26.992								
636.00	0.92616	33018	1.9326	26.948								
637.00	0.93240	33240	1.9357	26.438								
638.00	0.93176	33217	1.9387	26.321								
639.00	0.93769	33428	1.9418	26.398								
640.00	0.92625	33021	1.9448	26.263								
641.00	0.94401	33654	1.9478	26.180								
642.00	0.95344	33990	1.9509	25.736								
643.00	0.94582	33718	1.9539	25.371								
644.00	0.93886	33470	1.9569	25.377								
645.00	0.96570	34427	1.9600	24.617								
646.00	0.95782	34146	1.9630	24.122								
647.00	0.96096	34258	1.9661	24.240								
648.00	0.95636	34094	1.9691	23.756								
649.00	0.97154	34635	1.9721	23.552								
650.00	0.96769	34498	1.9752	22.852								
651.00	0.97466	34747	1.9782	22.783								
652.00	0.98454	35099	1.9813	22.818								
653.00	0.97467	34747	1.9843	22.459								
654.00	0.99427	35446	1.9873	22.045								
655.00	0.99015	35299	1.9904	21.825								
656.00	1.0000	35650	1.9934	21.207								
657.00	0.99657	35528	1.9964	21.372								
658.00	0.99789	35575	1.9995	20.840								
659.00	0.98191	35005	2.0025	20.142								
660.00	0.96053	34243	2.0056	19.714								
661.00	0.97436	34736	2.0086	19.287								
662.00	0.95344	33990	2.0116	19.110								
663.00	0.93014	33159	2.0147	18.685								
664.00	0.93468	33321	2.0177	18.416								
665.00	0.92672	33037	2.0208	18.303								
666.00	0.91537	32633	2.0238	18.130								
667.00	0.91219	32519	2.0268	17.822								
668.00	0.90359	32213	2.0299	17.220								
669.00	0.88432	31526	2.0329	17.064								
670.00	0.89034	31741	2.0359	17.426								
671.00	0.88155	31427	2.0390	16.994								
672.00	0.88449	31532	2.0420	16.714								
673.00	0.85530	30491	2.0451	16.695								
674.00	0.83084	29619	2.0481	16.267								
675.00	0.86237	30743	2.0511	15.899								
676.00	0.80926	28850	2.0542	15.670								
677.00	0.82877	29546	2.0572	15.451								
678.00	0.81616	29096	2.0603	15.258								
679.00	0.79161	28221	2.0633	14.976								
680.00	0.79382	28299	2.0663	15.010								
681.00	0.79408	28309	2.0694	14.842								
682.00	0.75213	26813	2.0724	14.621								
683.00	0.77015	27456	2.0754	14.521								
684.00	0.72951	26007	2.0785	14.260								
685.00	0.75197	26807	2.0815	14.098								
686.00	0.72906	25991	2.0846	14.125								
687.00	0.71740	25575	2.0876	13.951								
688.00	0.70725	25213	2.0906	13.976								
689.00	0.67768	24159	2.0937	13.550								
690.00	0.67978	24234	2.0967	13.734								
691.00	0.66188	23596	2.0998	13.752								
692.00	0.65156	23228	2.1028	13.696								
693.00	0.65120	23215	2.1058	13.679								
694.00	0.61619	21967	2.1089	13.417								
695.00	0.61566	21948	2.1119	13.449								
696.00	0.59188	21100	2.1149	13.368								
697.00	0.60808	21678	2.1180	13.174								
698.00	0.58034	20689	2.1210	13.233								
699.00	0.57039	20334	2.1241	13.309								
700.00	0.55450	19768	2.1271	13.153								
701.00	0.54571	19454	2.1302	13.265								
702.00	0.52499	18716	2.1332	13.224								
703.00	0.52916	18864	2.1362	13.359								
704.00	0.51330	18299	2.1393	13.352								
705.00	0.49723	17726	2.1423	13.287								
706.00	0.51422	18332	2.1453	13.385								
707.00	0.48431	17266	2.1484	13.229								
708.00	0.47068	16780	2.1514	12.630								
709.00	0.46907	16722	2.1545	12.627								
710.00	0.44585	15894	2.1575	12.805								
711.00	0.44986	16038	2.1605	12.630								
712.00	0.39913	14229	2.1636	12.405								
713.00	0.41009	14620	2.1666	12.182								
714.00	0.40006	14262	2.1697	12.214								
715.00	0.39357	14031	2.1727	12.103								
716.00	0.37373	13324	2.1757	11.900								
717.00	0.37016	13196	2.1788	12.121								
718.00	0.38010	13551	2.1818	11.748								
719.00	0.36573	13038	2.1848	11.422								
720.00	0.37271	13287	2.1879	11.464								
721.00	0.34324	12237	2.1909	11.698								
722.00	0.33003	11766	2.1940	11.583								
723.00	0.32866	11717	2.1970	11.337								
724.00	0.31529	11240	2.2000	11.332								
725.00	0.32052	11427	2.2031	11.360								
726.00	0.30140	10745	2.2061	11.124								
727.00	0.29988	10691	2.2092	11.092								
728.00	0.29432	10493	2.2122	10.868								
729.00	0.27450	9785.9	2.2152	10.724								
730.00	0.26859	9575.3	2.2183	10.766								
731.00	0.27004	9626.8	2.2213	10.639								
732.00	0.27550	9821.7	2.2243	10.592								
733.00	0.23881	8513.4	2.2274	10.459								
734.00	0.23839	8498.7	2.2304	10.325								
735.00	0.21514	7669.8	2.2335	10.439								
736.00	0.23932	8531.6	2.2365	10.220								
737.00	0.23475	8369.0	2.2395	9.9230								
738.00	0.22252	7932.8	2.2426	9.7455								
739.00	0.19982	7123.5	2.2456	9.7176								
740.00	0.22498	8020.4	2.2487	9.6181								
741.00	0.19839	7072.6	2.2517	9.4344								
742.00	0.20241	7215.8	2.2547	9.2062								
743.00	0.19078	6801.2	2.2578	9.0009								
744.00	0.18266	6511.8	2.2608	8.8475								
745.00	0.17599	6273.9	2.2638	8.8754								
746.00	0.17379	6195.6	2.2669	8.9368								
747.00	0.17793	6343.3	2.2699	8.6097								
748.00	0.17059	6081.6	2.2730	8.5055								
749.00	0.15513	5530.3	2.2760	8.5036								
750.00	0.16104	5740.9	2.2790	8.3856								
751.00	0.15442	5505.2	2.2821	8.0029								
752.00	0.13580	4841.4	2.2851	7.8762								
753.00	0.14649	5222.4	2.2882	7.8587								
754.00	0.16289	5807.2	2.2912	7.6008								
755.00	0.12940	4613.0	2.2942	7.3887								
756.00	0.12969	4623.4	2.2973	7.2882								
757.00	0.11621	4142.8	2.3003	7.2289								
758.00	0.13216	4711.5	2.3033	6.9577								
759.00	0.13556	4832.7	2.3064	6.6720								
760.00	0.10088	3596.4	2.3094	6.5170								
761.00	0.12629	4502.2	2.3125	6.5546								
762.00	0.092436	3295.3	2.3155	6.3682								
763.00	0.098731	3519.8	2.3186	6.0934								
764.00	0.10610	3782.6	2.3216	5.9074								
765.00	0.073453	2618.6	2.3246	6.0048								
766.00	0.10605	3780.5	2.3277	5.9463								
767.00	0.10535	3755.6	2.3307	5.6958								
768.00	0.086851	3096.2	2.3337	5.5529								
769.00	0.062463	2226.8	2.3368	5.4247								
770.00	0.091411	3258.8	2.3398	5.2554								
771.00	0.069284	2470.0	2.3429	5.0088								
772.00	0.094820	3380.3	2.3459	4.8694								
773.00	0.089128	3177.4	2.3489	4.7623								
774.00	0.075252	2682.7	2.3520	4.5947								
775.00	0.066043	2354.4	2.3550	4.4360								
776.00	0.033549	1196.0	2.3581	4.3068								
777.00	0.069043	2461.4	2.3611	4.2009								
778.00	0.058668	2091.5	2.3641	4.0206								
779.00	0.058926	2100.7	2.3672	3.9163								
780.00	0.016477	587.39	2.3702	3.9226								
781.00	0.055789	1988.9	2.3732	3.7554								
782.00	0.038528	1373.5	2.3763	3.6233								
783.00	0.048469	1727.9	2.3793	3.5950								
784.00	0.040016	1426.6	2.3824	3.4317								
785.00	0.028300	1008.9	2.3854	3.2403								
786.00	0.032784	1168.7	2.3884	3.0850								
787.00	0.035204	1255.0	2.3915	2.9462								
788.00	0.025035	892.49	2.3945	2.8527								
789.00	0.0044054	157.05	2.3976	2.8076								
790.00	-0.017645	-629.05	2.4006	2.7463								
791.00	0.011157	397.73	2.4036	2.6625								
792.00	-0.0016916	-60.306	2.4067	2.5582								
793.00	0.027788	990.64	2.4097	2.4560								
794.00	0.029539	1053.1	2.4128	2.3359								
795.00	-0.0017748	-63.273	2.4158	2.1875								
796.00	0.0080426	286.72	2.4188	2.1435								
797.00	-0.0033015	-117.70	2.4219	2.1221								
798.00	-0.0091880	-327.55	2.4249	1.9733								
799.00	-0.012356	-440.49	2.4279	1.8236								
800.00	-0.014042	-500.58	2.4310	1.7532								
