TS173-K0.83	TS173-K0.83	TS173-K0.83	TS173_KNaYS2_Eu_05s	norm	Em	??K	TS173_KNaYS2_Eu_05s	abs	(phot/s/nm)	energy(eV)	RadiantFlux(W/eV)	
510.00	0.041818	5390.6	1.5497	-0.10694								
511.00	0.045721	5893.8	1.5528	0.068447								
512.00	0.049030	6320.4	1.5558	0.059996								
513.00	0.052266	6737.5	1.5589	-0.50970								
514.00	0.055966	7214.5	1.5619	11.273								
515.00	0.061379	7912.2	1.5649	10.248								
516.00	0.067220	8665.2	1.5680	9.6701								
517.00	0.069644	8977.7	1.5710	9.3865								
518.00	0.073515	9476.7	1.5741	11.206								
519.00	0.080383	10362	1.5771	11.505								
520.00	0.083293	10737	1.5801	10.660								
521.00	0.085559	11029	1.5832	11.574								
522.00	0.094375	12166	1.5862	10.377								
523.00	0.093449	12046	1.5892	12.108								
524.00	0.10295	13272	1.5923	13.129								
525.00	0.10661	13743	1.5953	12.649								
526.00	0.11349	14630	1.5984	13.491								
527.00	0.11528	14860	1.6014	13.680								
528.00	0.12344	15912	1.6044	13.745								
529.00	0.12691	16359	1.6075	13.405								
530.00	0.13419	17299	1.6105	14.680								
531.00	0.13836	17836	1.6136	16.484								
532.00	0.14514	18709	1.6166	15.129								
533.00	0.14762	19029	1.6196	16.418								
534.00	0.15695	20232	1.6227	17.175								
535.00	0.16036	20672	1.6257	18.725								
536.00	0.16536	21317	1.6288	18.090								
537.00	0.16802	21659	1.6318	17.833								
538.00	0.17665	22771	1.6348	18.548								
539.00	0.18062	23283	1.6379	19.011								
540.00	0.18965	24448	1.6409	20.584								
541.00	0.19434	25052	1.6439	21.346								
542.00	0.19717	25417	1.6470	21.207								
543.00	0.19872	25617	1.6500	22.514								
544.00	0.20495	26419	1.6531	21.932								
545.00	0.21046	27131	1.6561	22.781								
546.00	0.21278	27429	1.6591	24.613								
547.00	0.21745	28031	1.6622	23.982								
548.00	0.22598	29131	1.6652	25.754								
549.00	0.23392	30154	1.6683	26.491								
550.00	0.23644	30478	1.6713	26.898								
551.00	0.24143	31122	1.6743	27.089								
552.00	0.24367	31411	1.6774	28.980								
553.00	0.24735	31885	1.6804	28.694								
554.00	0.25325	32646	1.6834	29.756								
555.00	0.25727	33164	1.6865	30.597								
556.00	0.26485	34141	1.6895	33.379								
557.00	0.26696	34413	1.6926	33.901								
558.00	0.27152	35002	1.6956	34.916								
559.00	0.27262	35143	1.6987	35.334								
560.00	0.27737	35756	1.7017	37.123								
561.00	0.27422	35349	1.7047	39.383								
562.00	0.28238	36401	1.7078	39.328								
563.00	0.28594	36861	1.7108	40.262								
564.00	0.28732	37038	1.7138	41.738								
565.00	0.28932	37295	1.7169	43.259								
566.00	0.28743	37053	1.7199	44.198								
567.00	0.29632	38199	1.7230	45.628								
568.00	0.29667	38244	1.7260	47.683								
569.00	0.29900	38543	1.7290	48.162								
570.00	0.30051	38739	1.7321	49.223								
571.00	0.30433	39230	1.7351	51.349								
572.00	0.30902	39834	1.7382	52.444								
573.00	0.31025	39994	1.7412	53.559								
574.00	0.31371	40440	1.7442	55.993								
575.00	0.31721	40891	1.7473	56.684								
576.00	0.32320	41662	1.7503	58.430								
577.00	0.32440	41817	1.7533	59.366								
578.00	0.32867	42369	1.7564	60.725								
579.00	0.33111	42682	1.7594	62.422								
580.00	0.33253	42865	1.7625	63.084								
581.00	0.33991	43817	1.7655	64.040								
582.00	0.33951	43765	1.7685	67.215								
583.00	0.33565	43268	1.7716	68.024								
584.00	0.33734	43486	1.7746	68.701								
585.00	0.34489	44459	1.7776	70.751								
586.00	0.34942	45043	1.7807	71.102								
587.00	0.35194	45368	1.7837	73.319								
588.00	0.35259	45451	1.7868	74.039								
589.00	0.36157	46610	1.7898	75.977								
590.00	0.36070	46497	1.7929	77.350								
591.00	0.36902	47570	1.7959	78.332								
592.00	0.37687	48581	1.7989	80.412								
593.00	0.38115	49133	1.8020	82.183								
594.00	0.38475	49597	1.8050	84.501								
595.00	0.39691	51164	1.8080	84.743								
596.00	0.39927	51469	1.8111	86.481								
597.00	0.40760	52543	1.8141	87.644								
598.00	0.42421	54684	1.8172	88.659								
599.00	0.41443	53423	1.8202	89.721								
600.00	0.43015	55450	1.8232	89.118								
601.00	0.44040	56771	1.8263	92.016								
602.00	0.44526	57398	1.8293	93.158								
603.00	0.45200	58266	1.8324	93.187								
604.00	0.46718	60223	1.8354	94.518								
605.00	0.47973	61840	1.8384	94.904								
606.00	0.47932	61788	1.8415	95.896								
607.00	0.49848	64258	1.8445	97.685								
608.00	0.51263	66083	1.8476	97.120								
609.00	0.51960	66981	1.8506	97.997								
610.00	0.53265	68663	1.8536	98.593								
611.00	0.55068	70987	1.8567	100.93								
612.00	0.55126	71062	1.8597	100.17								
613.00	0.57206	73743	1.8627	99.987								
614.00	0.58987	76039	1.8658	101.32								
615.00	0.59653	76898	1.8688	102.21								
616.00	0.60719	78271	1.8719	101.12								
617.00	0.62411	80452	1.8749	102.25								
618.00	0.64669	83363	1.8779	102.75								
619.00	0.65640	84615	1.8810	103.55								
620.00	0.66188	85321	1.8840	103.75								
621.00	0.68437	88221	1.8871	105.00								
622.00	0.69588	89705	1.8901	102.36								
623.00	0.71344	91968	1.8931	102.19								
624.00	0.72180	93045	1.8962	102.86								
625.00	0.75460	97274	1.8992	101.40								
626.00	0.75122	96839	1.9022	102.37								
627.00	0.76171	98190	1.9053	101.25								
628.00	0.77891	1.0041e+05	1.9083	101.27								
629.00	0.79037	1.0189e+05	1.9114	101.03								
630.00	0.80930	1.0433e+05	1.9144	99.114								
631.00	0.82152	1.0590e+05	1.9174	98.041								
632.00	0.83047	1.0705e+05	1.9205	98.949								
633.00	0.84799	1.0931e+05	1.9235	98.681								
634.00	0.84630	1.0909e+05	1.9266	97.055								
635.00	0.87039	1.1220e+05	1.9296	96.156								
636.00	0.87662	1.1300e+05	1.9326	94.567								
637.00	0.89389	1.1523e+05	1.9357	93.234								
638.00	0.89000	1.1473e+05	1.9387	92.163								
639.00	0.89816	1.1578e+05	1.9418	91.162								
640.00	0.90569	1.1675e+05	1.9448	90.932								
641.00	0.91642	1.1813e+05	1.9478	90.131								
642.00	0.92851	1.1969e+05	1.9509	88.769								
643.00	0.94255	1.2150e+05	1.9539	87.064								
644.00	0.94549	1.2188e+05	1.9569	85.717								
645.00	0.96598	1.2452e+05	1.9600	85.020								
646.00	0.95167	1.2268e+05	1.9630	83.409								
647.00	0.94967	1.2242e+05	1.9661	82.365								
648.00	0.96392	1.2426e+05	1.9691	80.736								
649.00	0.97841	1.2613e+05	1.9721	79.000								
650.00	0.97310	1.2544e+05	1.9752	77.611								
651.00	0.97476	1.2565e+05	1.9782	75.914								
652.00	0.98408	1.2685e+05	1.9813	75.267								
653.00	0.96978	1.2501e+05	1.9843	74.821								
654.00	0.98648	1.2717e+05	1.9873	71.770								
655.00	0.97505	1.2569e+05	1.9904	70.867								
656.00	0.97699	1.2594e+05	1.9934	69.115								
657.00	1.0000	1.2891e+05	1.9964	67.930								
658.00	0.98676	1.2720e+05	1.9995	65.706								
659.00	0.98433	1.2689e+05	2.0025	64.994								
660.00	0.97362	1.2551e+05	2.0056	64.135								
661.00	0.97375	1.2552e+05	2.0086	62.136								
662.00	0.95135	1.2264e+05	2.0116	60.267								
663.00	0.96619	1.2455e+05	2.0147	59.014								
664.00	0.95749	1.2343e+05	2.0177	58.272								
665.00	0.94971	1.2243e+05	2.0208	57.113								
666.00	0.93485	1.2051e+05	2.0238	55.131								
667.00	0.94375	1.2166e+05	2.0268	53.833								
668.00	0.94414	1.2171e+05	2.0299	53.436								
669.00	0.91883	1.1844e+05	2.0329	51.715								
670.00	0.91515	1.1797e+05	2.0359	50.536								
671.00	0.90536	1.1671e+05	2.0390	49.855								
672.00	0.91070	1.1740e+05	2.0420	48.600								
673.00	0.89657	1.1558e+05	2.0451	46.805								
674.00	0.87920	1.1334e+05	2.0481	46.379								
675.00	0.88327	1.1386e+05	2.0511	45.761								
676.00	0.86640	1.1169e+05	2.0542	44.374								
677.00	0.86033	1.1090e+05	2.0572	43.254								
678.00	0.85927	1.1077e+05	2.0603	42.725								
679.00	0.84561	1.0901e+05	2.0633	42.205								
680.00	0.82003	1.0571e+05	2.0663	41.248								
681.00	0.82469	1.0631e+05	2.0694	39.792								
682.00	0.81677	1.0529e+05	2.0724	40.375								
683.00	0.80371	1.0360e+05	2.0754	39.577								
684.00	0.80010	1.0314e+05	2.0785	38.368								
685.00	0.78226	1.0084e+05	2.0815	37.935								
686.00	0.77086	99369	2.0846	37.461								
687.00	0.76903	99135	2.0876	36.455								
688.00	0.74781	96399	2.0906	36.129								
689.00	0.73349	94553	2.0937	35.748								
690.00	0.71521	92196	2.0967	35.117								
691.00	0.70249	90556	2.0998	34.338								
692.00	0.69707	89858	2.1028	34.018								
693.00	0.68106	87794	2.1058	33.826								
694.00	0.66620	85878	2.1089	33.102								
695.00	0.66154	85278	2.1119	33.019								
696.00	0.63619	82009	2.1149	32.800								
697.00	0.64855	83603	2.1180	32.448								
698.00	0.61503	79283	2.1210	31.871								
699.00	0.61712	79551	2.1241	31.363								
700.00	0.60619	78143	2.1271	31.306								
701.00	0.60052	77411	2.1302	31.572								
702.00	0.57647	74311	2.1332	31.610								
703.00	0.55732	71843	2.1362	31.101								
704.00	0.56604	72966	2.1393	30.710								
705.00	0.54710	70526	2.1423	30.575								
706.00	0.53724	69254	2.1453	30.319								
707.00	0.52597	67802	2.1484	29.949								
708.00	0.52012	67047	2.1514	29.809								
709.00	0.50706	65364	2.1545	29.438								
710.00	0.49534	63854	2.1575	29.005								
711.00	0.49159	63370	2.1605	28.715								
712.00	0.47109	60728	2.1636	28.422								
713.00	0.46367	59771	2.1666	28.295								
714.00	0.45130	58176	2.1697	27.990								
715.00	0.44713	57638	2.1727	27.609								
716.00	0.42606	54922	2.1757	27.338								
717.00	0.42051	54207	2.1788	27.197								
718.00	0.41583	53603	2.1818	26.988								
719.00	0.41126	53015	2.1848	26.926								
720.00	0.38655	49829	2.1879	26.569								
721.00	0.38355	49442	2.1909	25.990								
722.00	0.37619	48494	2.1940	26.107								
723.00	0.36453	46990	2.1970	25.983								
724.00	0.35589	45877	2.2000	25.828								
725.00	0.34425	44376	2.2031	25.667								
726.00	0.33894	43692	2.2061	25.350								
727.00	0.34364	44298	2.2092	24.714								
728.00	0.32290	41625	2.2122	24.705								
729.00	0.31624	40766	2.2152	24.698								
730.00	0.30136	38847	2.2183	24.338								
731.00	0.30028	38708	2.2213	24.238								
732.00	0.29120	37539	2.2243	23.937								
733.00	0.28836	37172	2.2274	23.688								
734.00	0.28276	36450	2.2304	23.444								
735.00	0.26152	33712	2.2335	22.892								
736.00	0.25707	33139	2.2365	22.555								
737.00	0.24778	31941	2.2395	22.195								
738.00	0.24296	31320	2.2426	21.793								
739.00	0.24761	31919	2.2456	21.525								
740.00	0.22756	29334	2.2487	21.352								
741.00	0.23222	29935	2.2517	21.076								
742.00	0.22548	29067	2.2547	20.750								
743.00	0.22235	28663	2.2578	20.568								
744.00	0.22466	28960	2.2608	20.105								
745.00	0.20800	26812	2.2638	19.505								
746.00	0.20096	25905	2.2669	18.962								
747.00	0.20643	26611	2.2699	18.630								
748.00	0.20100	25911	2.2730	18.444								
749.00	0.18460	23796	2.2760	18.210								
750.00	0.18297	23586	2.2790	17.819								
751.00	0.19252	24817	2.2821	17.383								
752.00	0.17730	22856	2.2851	17.152								
753.00	0.17670	22778	2.2882	17.042								
754.00	0.17675	22785	2.2912	16.842								
755.00	0.17692	22806	2.2942	16.573								
756.00	0.16453	21209	2.2973	16.113								
757.00	0.15688	20224	2.3003	15.545								
758.00	0.15157	19538	2.3033	15.289								
759.00	0.15510	19993	2.3064	14.837								
760.00	0.14485	18672	2.3094	14.363								
761.00	0.14938	19256	2.3125	14.196								
762.00	0.14624	18852	2.3155	13.911								
763.00	0.15673	20204	2.3186	13.639								
764.00	0.14144	18232	2.3216	13.409								
765.00	0.12878	16600	2.3246	12.837								
766.00	0.13956	17990	2.3277	12.471								
767.00	0.12230	15765	2.3307	12.310								
768.00	0.13254	17085	2.3337	11.894								
769.00	0.13299	17144	2.3368	11.578								
770.00	0.11606	14961	2.3398	11.287								
771.00	0.10900	14051	2.3429	10.839								
772.00	0.10987	14163	2.3459	10.576								
773.00	0.11165	14393	2.3489	10.287								
774.00	0.11056	14253	2.3520	9.7920								
775.00	0.11035	14225	2.3550	9.6114								
776.00	0.10761	13871	2.3581	9.4183								
777.00	0.10195	13142	2.3611	9.0020								
778.00	0.10325	13310	2.3641	8.7733								
779.00	0.10601	13666	2.3672	8.4109								
780.00	0.099343	12806	2.3702	7.8599								
781.00	0.080750	10409	2.3732	7.8497								
782.00	0.086847	11195	2.3763	7.7017								
783.00	0.093566	12061	2.3793	7.1768								
784.00	0.081543	10512	2.3824	6.9767								
785.00	0.088391	11394	2.3854	6.8731								
786.00	0.090917	11720	2.3884	6.6976								
787.00	0.094244	12149	2.3915	6.3361								
788.00	0.085131	10974	2.3945	5.9910								
789.00	0.075771	9767.4	2.3976	5.7828								
790.00	0.071051	9159.0	2.4006	5.6501								
791.00	0.079310	10224	2.4036	5.4588								
792.00	0.082596	10647	2.4067	5.1319								
793.00	0.076054	9803.9	2.4097	4.8144								
794.00	0.086905	11203	2.4128	4.5454								
795.00	0.0011453	147.64	2.4158	4.3433								
796.00	0.0011677	150.53	2.4188	4.1635								
797.00	0.00039946	51.493	2.4219	3.9904								
798.00	0.00080849	104.22	2.4249	3.8142								
799.00	2.7606e-13	3.5587e-08	2.4279	3.6239								
800.00	-0.00083639	-107.82	2.4310	3.4085								
